Wavelength (nm),n2pt5_n,n2pt5_k
250,2.5,0
300,2.5,0
350,2.5,0
400,2.5,0
450,2.5,0
500,2.5,0
550,2.5,0
600,2.5,0
650,2.5,0
700,2.5,0
750,2.5,0
800,2.5,0
850,2.5,0
900,2.5,0
950,2.5,0
1000,2.5,0
1050,2.5,0
1100,2.5,0
1150,2.5,0
1200,2.5,0
1250,2.5,0
