#PC70BM
#From DOI: 10.1016/j.chemphys.2015.02.008
#n extrapolated to 1200nm using Cauchy equation for wavelengths above experimental range
#k set to zero for wavelengths above experimental range
#Wavelength [nm]	n	k
300	2.162479209	0.486164799
305	2.148143158	0.469595052
310	2.133807107	0.453025305
315	2.119471056	0.438341983
320	2.105135004	0.426628972
325	2.093321661	0.416723913
330	2.082789862	0.407869482
335	2.072941875	0.399398144
340	2.063314548	0.390978139
345	2.053281134	0.383216465
350	2.042943712	0.377560188
355	2.032248732	0.374675462
360	2.021142183	0.375823311
365	2.013240132	0.381451917
370	2.013240132	0.389616038
375	2.019995716	0.397105266
380	2.0302321	0.399302388
385	2.040030566	0.393587622
390	2.047837888	0.38170959
395	2.04572448	0.367281476
400	2.043020733	0.35523862
405	2.034920754	0.347835265
410	2.027547021	0.345707224
415	2.025443859	0.34755876
420	2.023380067	0.348419592
425	2.022171581	0.347343082
430	2.020963095	0.345151386
435	2.016930917	0.343009506
440	2.011269465	0.34351878
445	2.007053309	0.348032832
450	2.00591886	0.356481485
455	2.00478441	0.366894735
460	2.012096363	0.37815523
465	2.022192391	0.38833821
470	2.033994442	0.396337085
475	2.049773973	0.401205446
480	2.065553505	0.402287079
485	2.079982376	0.400103425
490	2.094401908	0.395550831
495	2.107050299	0.389072978
500	2.118359773	0.38097339
505	2.129669247	0.372684232
510	2.137124879	0.364250914
515	2.143982227	0.356032812
520	2.150839576	0.348164463
525	2.157412015	0.340458521
530	2.163850605	0.33352616
535	2.170289194	0.326641854
540	2.177198394	0.319615483
545	2.185271347	0.312143016
550	2.193344299	0.304127516
555	2.201365477	0.295626087
560	2.208181672	0.286286675
565	2.214997867	0.275116425
570	2.221814062	0.263107985
575	2.227779576	0.250606738
580	2.230251466	0.237276513
585	2.232723355	0.223340351
590	2.235195245	0.20868312
595	2.23725156	0.194092561
600	2.233967798	0.179808641
605	2.230684037	0.166469164
610	2.227400275	0.1539556
615	2.224116513	0.143306657
620	2.220206332	0.133270542
625	2.21594038	0.124919176
630	2.211674428	0.116724524
635	2.207408476	0.108769057
640	2.203142524	0.100832871
645	2.197678459	0.093119778
650	2.192017659	0.085423312
655	2.186356859	0.077948845
660	2.180696058	0.070474378
665	2.175490157	0.065486258
670	2.17181829	0.06050904
675	2.168146423	0.0567902
680	2.164474556	0.053285969
685	2.160802689	0.048629677
690	2.157130822	0.043331954
695	2.152483748	0.038096469
700	2.1467	0.032973457
705	2.1414	0.027850444
710	2.1361	0.022504872
715	2.1309	0.01715754
720	2.1257	0.013163288
725	2.1202	0.010293859
730	2.1147	0.007440844
735	2.1093	0.005778919
740	2.1039	0.004116994
745	2.0986	0.00296441
750	2.0938	0.002608132
755	2.0897	0.002251855
760	2.0856	0.001788998
765	2.0816	0.001273791
770	2.0777	0.000758583
775	2.0737	0.000681153
780	2.0699	0.000681153
785	2.0661	0.000681153
790	2.0624	0.000681153
795	2.0587	0.000681153
800	2.0551	0.000681153
805	2.0515	0.000681153
810	2.0479	0.000681153
815	2.0444	0.000681153
820	2.0409	0.000681153
825	2.0366	0
830	2.0332	0
835	2.0299	0
840	2.0267	0
845	2.0235	0
850	2.0203	0
855	2.0172	0
860	2.0142	0
865	2.0112	0
870	2.0083	0
875	2.0054	0
880	2.0025	0
885	1.9998	0
890	1.9970	0
895	1.9943	0
900	1.9917	0
905	1.9891	0
910	1.9865	0
915	1.9840	0
920	1.9815	0
925	1.9791	0
930	1.9767	0
935	1.9743	0
940	1.9720	0
945	1.9697	0
950	1.9675	0
955	1.9652	0
960	1.9631	0
965	1.9609	0
970	1.9588	0
975	1.9567	0
980	1.9547	0
985	1.9526	0
990	1.9507	0
995	1.9487	0
1000	1.9468	0
1005	1.9449	0
1010	1.9430	0
1015	1.9411	0
1020	1.9393	0
1025	1.9375	0
1030	1.9358	0
1035	1.9340	0
1040	1.9323	0
1045	1.9306	0
1050	1.9290	0
1055	1.9273	0
1060	1.9257	0
1065	1.9241	0
1070	1.9225	0
1075	1.9210	0
1080	1.9194	0
1085	1.9179	0
1090	1.9164	0
1095	1.9150	0
1100	1.9135	0
1105	1.9121	0
1110	1.9107	0
1115	1.9093	0
1120	1.9079	0
1125	1.9066	0
1130	1.9052	0
1135	1.9039	0
1140	1.9026	0
1145	1.9013	0
1150	1.9001	0
1155	1.8988	0
1160	1.8976	0
1165	1.8964	0
1170	1.8952	0
1175	1.8940	0
1180	1.8928	0
1185	1.8916	0
1190	1.8905	0
1195	1.8894	0
1200	1.8883	0
