# refractive index file of T2T
#
# published in: A. Salehi et al., Adv. Optical Mater. 2017, 1700197, DOI: 10.1002/adom.201700197
#
# Wavelength (nm)	n_o	k_o	n_e	k_e
400.92	1.7493	0.00054807	1.9467	0.0001586
402.51	1.7476	0.00049521	1.9441	0.00014031
404.09	1.7459	0.00044748	1.9417	0.00012415
405.68	1.7443	0.00040439	1.9392	0.00010986
407.26	1.7426	0.00036549	1.9369	9.72E-05
408.85	1.7411	0.00033036	1.9346	8.61E-05
410.44	1.7396	0.00029865	1.9323	7.62E-05
412.02	1.7381	0.00027001	1.9301	6.75E-05
413.61	1.7366	0.00024415	1.928	5.98E-05
415.2	1.7352	0.0002208	1.9259	5.29E-05
416.78	1.7338	0.00019971	1.9239	4.69E-05
418.37	1.7325	0.00018066	1.9219	4.16E-05
419.95	1.7311	0.00016345	1.9199	3.68E-05
421.54	1.7298	0.0001479	1.918	3.27E-05
423.13	1.7286	0.00013386	1.9161	2.90E-05
424.71	1.7273	0.00012116	1.9143	2.57E-05
426.3	1.7261	0.0001097	1.9125	2.28E-05
427.89	1.7249	9.93E-05	1.9107	2.02E-05
429.47	1.7238	9.00E-05	1.909	1.79E-05
431.06	1.7226	8.15E-05	1.9073	1.59E-05
432.64	1.7215	7.38E-05	1.9056	1.41E-05
434.23	1.7204	6.69E-05	1.904	1.26E-05
435.82	1.7194	6.06E-05	1.9024	1.12E-05
437.4	1.7183	5.50E-05	1.9008	9.91E-06
438.99	1.7173	4.98E-05	1.8993	8.81E-06
440.57	1.7163	4.52E-05	1.8978	7.83E-06
442.16	1.7153	4.10E-05	1.8963	6.97E-06
443.75	1.7143	3.72E-05	1.8949	6.20E-06
445.33	1.7134	3.38E-05	1.8934	5.51E-06
446.92	1.7125	3.06E-05	1.892	4.91E-06
448.5	1.7116	2.78E-05	1.8907	4.37E-06
450.09	1.7107	2.53E-05	1.8893	3.89E-06
451.67	1.7098	2.30E-05	1.888	3.47E-06
453.26	1.7089	2.09E-05	1.8867	3.09E-06
454.85	1.7081	1.89E-05	1.8854	2.75E-06
456.43	1.7072	1.72E-05	1.8842	2.45E-06
458.02	1.7064	1.57E-05	1.8829	2.19E-06
459.6	1.7056	1.42E-05	1.8817	1.95E-06
461.19	1.7048	1.30E-05	1.8805	1.74E-06
462.77	1.704	1.18E-05	1.8793	1.56E-06
464.36	1.7033	1.07E-05	1.8782	1.39E-06
465.95	1.7025	9.76E-06	1.877	1.24E-06
467.53	1.7018	8.89E-06	1.8759	1.11E-06
469.12	1.7011	8.09E-06	1.8748	9.91E-07
470.7	1.7004	7.37E-06	1.8737	8.86E-07
472.29	1.6997	6.72E-06	1.8727	7.92E-07
473.87	1.699	6.12E-06	1.8716	7.09E-07
475.46	1.6983	5.58E-06	1.8706	6.34E-07
477.04	1.6976	5.09E-06	1.8696	5.68E-07
478.63	1.697	4.64E-06	1.8686	5.08E-07
480.21	1.6963	4.24E-06	1.8676	4.55E-07
481.8	1.6957	3.87E-06	1.8666	4.08E-07
483.39	1.695	3.53E-06	1.8657	3.66E-07
484.97	1.6944	3.22E-06	1.8647	3.28E-07
486.56	1.6938	2.94E-06	1.8638	2.94E-07
488.14	1.6932	2.69E-06	1.8629	2.64E-07
489.73	1.6926	2.46E-06	1.862	2.37E-07
491.31	1.692	2.25E-06	1.8611	2.13E-07
492.9	1.6915	2.05E-06	1.8602	1.91E-07
494.48	1.6909	1.88E-06	1.8594	1.71E-07
496.07	1.6903	1.72E-06	1.8585	1.54E-07
497.65	1.6898	1.57E-06	1.8577	1.39E-07
499.24	1.6893	1.44E-06	1.8569	1.25E-07
500.82	1.6887	1.32E-06	1.856	1.12E-07
502.41	1.6882	1.21E-06	1.8552	1.01E-07
503.99	1.6877	1.10E-06	1.8545	9.07E-08
505.58	1.6872	1.01E-06	1.8537	8.17E-08
507.16	1.6867	9.27E-07	1.8529	7.36E-08
508.75	1.6862	8.50E-07	1.8521	6.63E-08
510.33	1.6857	7.80E-07	1.8514	5.98E-08
511.91	1.6852	7.15E-07	1.8507	5.39E-08
513.5	1.6847	6.56E-07	1.8499	4.86E-08
515.08	1.6843	6.02E-07	1.8492	4.38E-08
516.67	1.6838	5.53E-07	1.8485	3.96E-08
518.25	1.6833	5.07E-07	1.8478	3.57E-08
519.84	1.6829	4.66E-07	1.8471	3.23E-08
521.42	1.6824	4.28E-07	1.8464	2.91E-08
523.01	1.682	3.93E-07	1.8457	2.63E-08
524.59	1.6816	3.62E-07	1.8451	2.38E-08
526.18	1.6811	3.32E-07	1.8444	2.15E-08
527.76	1.6807	3.06E-07	1.8438	1.95E-08
529.34	1.6803	2.81E-07	1.8431	1.76E-08
530.93	1.6799	2.59E-07	1.8425	1.59E-08
532.51	1.6795	2.38E-07	1.8419	1.44E-08
534.1	1.6791	2.19E-07	1.8413	1.31E-08
535.68	1.6787	2.02E-07	1.8407	1.18E-08
537.26	1.6783	1.86E-07	1.8401	1.07E-08
538.85	1.6779	1.71E-07	1.8395	9.73E-09
540.43	1.6775	1.58E-07	1.8389	8.83E-09
542.02	1.6771	1.46E-07	1.8383	8.01E-09
543.6	1.6768	1.34E-07	1.8377	7.27E-09
545.18	1.6764	1.24E-07	1.8372	6.60E-09
546.77	1.676	1.14E-07	1.8366	5.99E-09
548.35	1.6757	1.05E-07	1.836	5.44E-09
549.94	1.6753	9.73E-08	1.8355	4.94E-09
551.52	1.675	8.99E-08	1.835	4.49E-09
553.1	1.6746	8.30E-08	1.8344	4.08E-09
554.69	1.6743	7.67E-08	1.8339	3.71E-09
556.27	1.6739	7.09E-08	1.8334	3.38E-09
557.85	1.6736	6.55E-08	1.8329	3.08E-09
559.44	1.6733	6.05E-08	1.8323	2.80E-09
561.02	1.6729	5.60E-08	1.8318	2.55E-09
562.6	1.6726	5.18E-08	1.8313	2.32E-09
564.19	1.6723	4.79E-08	1.8309	2.12E-09
565.77	1.672	4.43E-08	1.8304	1.93E-09
567.35	1.6717	4.11E-08	1.8299	1.76E-09
568.94	1.6714	3.80E-08	1.8294	1.60E-09
570.52	1.671	3.52E-08	1.8289	1.46E-09
572.1	1.6707	3.26E-08	1.8285	1.34E-09
573.69	1.6704	3.02E-08	1.828	1.22E-09
575.27	1.6701	2.80E-08	1.8276	1.11E-09
576.85	1.6699	2.60E-08	1.8271	1.02E-09
578.43	1.6696	2.41E-08	1.8267	9.29E-10
580.02	1.6693	2.23E-08	1.8262	8.49E-10
581.6	1.669	2.07E-08	1.8258	7.77E-10
583.18	1.6687	1.92E-08	1.8254	7.10E-10
584.77	1.6684	1.79E-08	1.8249	6.50E-10
586.35	1.6682	1.66E-08	1.8245	5.95E-10
587.93	1.6679	1.54E-08	1.8241	5.44E-10
589.51	1.6676	1.43E-08	1.8237	4.98E-10
591.09	1.6674	1.33E-08	1.8233	4.56E-10
592.68	1.6671	1.24E-08	1.8229	4.18E-10
594.26	1.6668	1.15E-08	1.8225	3.83E-10
595.84	1.6666	1.07E-08	1.8221	3.51E-10
597.42	1.6663	9.93E-09	1.8217	3.22E-10
599.01	1.6661	9.24E-09	1.8213	2.96E-10
600.59	1.6658	8.60E-09	1.8209	2.71E-10
602.17	1.6656	8.01E-09	1.8205	2.49E-10
603.75	1.6653	7.45E-09	1.8201	2.29E-10
605.33	1.6651	6.94E-09	1.8198	2.10E-10
606.92	1.6648	6.46E-09	1.8194	1.93E-10
608.5	1.6646	6.02E-09	1.819	1.77E-10
610.08	1.6644	5.61E-09	1.8187	1.63E-10
611.66	1.6641	5.23E-09	1.8183	1.50E-10
613.24	1.6639	4.88E-09	1.818	1.38E-10
614.82	1.6637	4.55E-09	1.8176	1.27E-10
616.41	1.6635	4.24E-09	1.8173	1.17E-10
617.99	1.6632	3.96E-09	1.8169	1.07E-10
619.57	1.663	3.69E-09	1.8166	9.87E-11
621.15	1.6628	3.45E-09	1.8162	9.09E-11
622.73	1.6626	3.22E-09	1.8159	8.38E-11
624.31	1.6624	3.01E-09	1.8156	7.72E-11
625.89	1.6622	2.81E-09	1.8152	7.11E-11
627.47	1.6619	2.62E-09	1.8149	6.56E-11
629.06	1.6617	2.45E-09	1.8146	6.05E-11
630.64	1.6615	2.29E-09	1.8143	5.58E-11
632.22	1.6613	2.14E-09	1.8139	5.15E-11
633.8	1.6611	2.00E-09	1.8136	4.75E-11
635.38	1.6609	1.87E-09	1.8133	4.39E-11
636.96	1.6607	1.75E-09	1.813	4.05E-11
638.54	1.6605	1.64E-09	1.8127	3.74E-11
640.12	1.6603	1.54E-09	1.8124	3.46E-11
641.7	1.6601	1.44E-09	1.8121	3.20E-11
643.28	1.6599	1.35E-09	1.8118	2.95E-11
644.86	1.6597	1.26E-09	1.8115	2.73E-11
646.44	1.6596	1.18E-09	1.8112	2.53E-11
648.02	1.6594	1.11E-09	1.8109	2.34E-11
649.6	1.6592	1.04E-09	1.8107	2.16E-11
651.18	1.659	9.72E-10	1.8104	2.00E-11
652.76	1.6588	9.11E-10	1.8101	1.85E-11
654.34	1.6586	8.54E-10	1.8098	1.72E-11
655.92	1.6585	8.01E-10	1.8095	1.59E-11
657.5	1.6583	7.52E-10	1.8093	1.47E-11
659.08	1.6581	7.06E-10	1.809	1.37E-11
660.66	1.6579	6.62E-10	1.8087	1.27E-11
662.24	1.6578	6.22E-10	1.8085	1.17E-11
663.82	1.6576	5.84E-10	1.8082	1.09E-11
665.4	1.6574	5.48E-10	1.8079	1.01E-11
666.98	1.6573	5.15E-10	1.8077	9.38E-12
668.56	1.6571	4.84E-10	1.8074	8.71E-12
670.14	1.6569	4.55E-10	1.8072	8.08E-12
671.72	1.6568	4.27E-10	1.8069	7.51E-12
673.3	1.6566	4.02E-10	1.8067	6.97E-12
674.88	1.6564	3.78E-10	1.8064	6.48E-12
676.45	1.6563	3.55E-10	1.8062	6.02E-12
678.03	1.6561	3.34E-10	1.8059	5.60E-12
679.61	1.656	3.15E-10	1.8057	5.20E-12
681.19	1.6558	2.96E-10	1.8054	4.84E-12
682.77	1.6557	2.79E-10	1.8052	4.50E-12
684.35	1.6555	2.62E-10	1.805	4.19E-12
685.93	1.6554	2.47E-10	1.8047	3.90E-12
687.51	1.6552	2.33E-10	1.8045	3.63E-12
689.08	1.6551	2.19E-10	1.8043	3.38E-12
690.66	1.6549	2.06E-10	1.804	3.15E-12
692.24	1.6548	1.95E-10	1.8038	2.93E-12
693.82	1.6546	1.83E-10	1.8036	2.73E-12
695.4	1.6545	1.73E-10	1.8034	2.55E-12
696.97	1.6543	1.63E-10	1.8031	2.37E-12
698.55	1.6542	1.54E-10	1.8029	2.21E-12
700.13	1.654	1.45E-10	1.8027	2.07E-12
701.71	1.6539	1.37E-10	1.8025	1.93E-12
703.29	1.6538	1.29E-10	1.8023	1.80E-12
704.86	1.6536	1.22E-10	1.8021	1.68E-12
706.44	1.6535	1.15E-10	1.8019	1.57E-12
708.02	1.6534	1.09E-10	1.8016	1.46E-12
709.6	1.6532	1.03E-10	1.8014	1.37E-12
711.17	1.6531	9.69E-11	1.8012	1.28E-12
712.75	1.653	9.15E-11	1.801	1.19E-12
714.33	1.6528	8.65E-11	1.8008	1.11E-12
715.9	1.6527	8.17E-11	1.8006	1.04E-12
717.48	1.6526	7.72E-11	1.8004	9.74E-13
719.06	1.6524	7.30E-11	1.8002	9.11E-13
720.63	1.6523	6.90E-11	1.8	8.52E-13
722.21	1.6522	6.53E-11	1.7998	7.97E-13
723.79	1.6521	6.18E-11	1.7997	7.46E-13
725.36	1.6519	5.84E-11	1.7995	6.98E-13
726.94	1.6518	5.53E-11	1.7993	6.53E-13
728.52	1.6517	5.23E-11	1.7991	6.12E-13
730.09	1.6516	4.95E-11	1.7989	5.73E-13
731.67	1.6515	4.69E-11	1.7987	5.37E-13
733.25	1.6513	4.44E-11	1.7985	5.03E-13
734.82	1.6512	4.21E-11	1.7983	4.71E-13
736.4	1.6511	3.98E-11	1.7982	4.42E-13
737.97	1.651	3.77E-11	1.798	4.14E-13
739.55	1.6509	3.58E-11	1.7978	3.89E-13
741.12	1.6508	3.39E-11	1.7976	3.64E-13
742.7	1.6506	3.21E-11	1.7974	3.42E-13
744.28	1.6505	3.05E-11	1.7973	3.21E-13
745.85	1.6504	2.89E-11	1.7971	3.01E-13
747.43	1.6503	2.74E-11	1.7969	2.83E-13
749	1.6502	2.60E-11	1.7968	2.65E-13
750.58	1.6501	2.46E-11	1.7966	2.49E-13
752.15	1.65	2.34E-11	1.7964	2.34E-13
753.73	1.6499	2.22E-11	1.7963	2.20E-13
755.3	1.6498	2.11E-11	1.7961	2.07E-13
756.88	1.6497	2.00E-11	1.7959	1.94E-13
758.45	1.6495	1.90E-11	1.7958	1.83E-13
760.03	1.6494	1.80E-11	1.7956	1.72E-13
761.6	1.6493	1.71E-11	1.7954	1.61E-13
763.17	1.6492	1.63E-11	1.7953	1.52E-13
764.75	1.6491	1.55E-11	1.7951	1.43E-13
766.32	1.649	1.47E-11	1.795	1.34E-13
767.9	1.6489	1.40E-11	1.7948	1.26E-13
769.47	1.6488	1.33E-11	1.7946	1.19E-13
771.04	1.6487	1.26E-11	1.7945	1.12E-13
772.62	1.6486	1.20E-11	1.7943	1.06E-13
774.19	1.6485	1.14E-11	1.7942	9.94E-14
775.77	1.6484	1.08E-11	1.794	9.36E-14
777.34	1.6483	1.03E-11	1.7939	8.82E-14
778.91	1.6482	9.82E-12	1.7937	8.31E-14
780.49	1.6481	9.34E-12	1.7936	7.83E-14
782.06	1.6481	8.89E-12	1.7934	7.39E-14
783.63	1.648	8.46E-12	1.7933	6.96E-14
785.21	1.6479	8.06E-12	1.7931	6.57E-14
786.78	1.6478	7.67E-12	1.793	6.19E-14
788.35	1.6477	7.31E-12	1.7929	5.84E-14
789.92	1.6476	6.96E-12	1.7927	5.51E-14
791.5	1.6475	6.63E-12	1.7926	5.20E-14
793.07	1.6474	6.32E-12	1.7924	4.91E-14
794.64	1.6473	6.02E-12	1.7923	4.64E-14
796.21	1.6472	5.74E-12	1.7922	4.38E-14
797.79	1.6471	5.47E-12	1.792	4.14E-14
799.36	1.647	5.21E-12	1.7919	3.91E-14
800.93	1.647	4.97E-12	1.7918	3.69E-14
802.5	1.6469	4.74E-12	1.7916	3.49E-14
804.07	1.6468	4.52E-12	1.7915	3.30E-14
805.65	1.6467	4.31E-12	1.7914	3.11E-14
807.22	1.6466	4.11E-12	1.7912	2.94E-14
808.79	1.6465	3.92E-12	1.7911	2.78E-14
810.36	1.6464	3.74E-12	1.791	2.63E-14
811.93	1.6464	3.57E-12	1.7908	2.49E-14
813.5	1.6463	3.41E-12	1.7907	2.36E-14
815.07	1.6462	3.26E-12	1.7906	2.23E-14
816.64	1.6461	3.11E-12	1.7905	2.11E-14
818.22	1.646	2.97E-12	1.7903	2.00E-14
819.79	1.646	2.84E-12	1.7902	1.89E-14
821.36	1.6459	2.71E-12	1.7901	1.79E-14
822.93	1.6458	2.59E-12	1.79	1.70E-14
824.5	1.6457	2.47E-12	1.7898	1.61E-14
826.07	1.6456	2.36E-12	1.7897	1.52E-14
827.64	1.6456	2.26E-12	1.7896	1.44E-14
829.21	1.6455	2.16E-12	1.7895	1.37E-14
830.78	1.6454	2.06E-12	1.7893	1.29E-14
832.35	1.6453	1.97E-12	1.7892	1.23E-14
833.92	1.6453	1.89E-12	1.7891	1.16E-14
835.49	1.6452	1.80E-12	1.789	1.10E-14
837.06	1.6451	1.73E-12	1.7889	1.05E-14
838.63	1.645	1.65E-12	1.7888	9.92E-15
840.2	1.645	1.58E-12	1.7886	9.41E-15
841.77	1.6449	1.51E-12	1.7885	8.93E-15
843.33	1.6448	1.45E-12	1.7884	8.48E-15
844.9	1.6447	1.38E-12	1.7883	8.04E-15
846.47	1.6447	1.33E-12	1.7882	7.64E-15
848.04	1.6446	1.27E-12	1.7881	7.25E-15
849.61	1.6445	1.22E-12	1.788	6.89E-15
851.18	1.6444	1.16E-12	1.7879	6.54E-15
852.75	1.6444	1.11E-12	1.7878	6.21E-15
854.32	1.6443	1.07E-12	1.7876	5.90E-15
855.88	1.6442	1.02E-12	1.7875	5.61E-15
857.45	1.6442	9.80E-13	1.7874	5.33E-15
859.02	1.6441	9.39E-13	1.7873	5.06E-15
860.59	1.644	9.00E-13	1.7872	4.81E-15
862.16	1.644	8.63E-13	1.7871	4.58E-15
863.72	1.6439	8.27E-13	1.787	4.35E-15
865.29	1.6438	7.93E-13	1.7869	4.14E-15
866.86	1.6438	7.60E-13	1.7868	3.94E-15
868.43	1.6437	7.29E-13	1.7867	3.74E-15
869.99	1.6436	6.99E-13	1.7866	3.56E-15
871.56	1.6436	6.71E-13	1.7865	3.39E-15
873.13	1.6435	6.43E-13	1.7864	3.23E-15
874.69	1.6434	6.17E-13	1.7863	3.07E-15
876.26	1.6434	5.92E-13	1.7862	2.92E-15
877.83	1.6433	5.68E-13	1.7861	2.78E-15
879.39	1.6432	5.46E-13	1.786	2.65E-15
880.96	1.6432	5.24E-13	1.7859	2.52E-15
882.53	1.6431	5.03E-13	1.7858	2.40E-15
884.09	1.6431	4.83E-13	1.7857	2.29E-15
885.66	1.643	4.63E-13	1.7856	2.18E-15
887.22	1.6429	4.45E-13	1.7855	2.08E-15
888.79	1.6429	4.27E-13	1.7854	1.98E-15
890.36	1.6428	4.11E-13	1.7853	1.89E-15
891.92	1.6428	3.94E-13	1.7852	1.80E-15
893.49	1.6427	3.79E-13	1.7851	1.72E-15
895.05	1.6426	3.64E-13	1.7851	1.64E-15
896.62	1.6426	3.50E-13	1.785	1.56E-15
898.18	1.6425	3.36E-13	1.7849	1.49E-15
899.75	1.6425	3.23E-13	1.7848	1.42E-15
901.31	1.6424	3.11E-13	1.7847	1.36E-15
902.88	1.6423	2.99E-13	1.7846	1.29E-15
904.44	1.6423	2.87E-13	1.7845	1.24E-15
906.01	1.6422	2.76E-13	1.7844	1.18E-15
907.57	1.6422	2.66E-13	1.7843	1.13E-15
909.13	1.6421	2.56E-13	1.7842	1.07E-15
910.7	1.6421	2.46E-13	1.7842	1.03E-15
912.26	1.642	2.37E-13	1.7841	9.80E-16
913.83	1.6419	2.28E-13	1.784	9.36E-16
915.39	1.6419	2.19E-13	1.7839	8.94E-16
916.95	1.6418	2.11E-13	1.7838	8.54E-16
918.52	1.6418	2.03E-13	1.7837	8.16E-16
920.08	1.6417	1.95E-13	1.7836	7.80E-16
921.64	1.6417	1.88E-13	1.7836	7.45E-16
923.21	1.6416	1.81E-13	1.7835	7.12E-16
924.77	1.6416	1.74E-13	1.7834	6.81E-16
926.33	1.6415	1.68E-13	1.7833	6.51E-16
927.89	1.6415	1.62E-13	1.7832	6.23E-16
929.46	1.6414	1.56E-13	1.7831	5.95E-16
931.02	1.6413	1.50E-13	1.7831	5.70E-16
932.58	1.6413	1.45E-13	1.783	5.45E-16
934.14	1.6412	1.39E-13	1.7829	5.21E-16
935.71	1.6412	1.34E-13	1.7828	4.99E-16
937.27	1.6411	1.29E-13	1.7827	4.77E-16
938.83	1.6411	1.25E-13	1.7827	4.57E-16
940.39	1.641	1.20E-13	1.7826	4.37E-16
941.95	1.641	1.16E-13	1.7825	4.19E-16
943.51	1.6409	1.12E-13	1.7824	4.01E-16
945.07	1.6409	1.08E-13	1.7824	3.84E-16
946.64	1.6408	1.04E-13	1.7823	3.67E-16
948.2	1.6408	1.00E-13	1.7822	3.52E-16
949.76	1.6407	9.66E-14	1.7821	3.37E-16
951.32	1.6407	9.32E-14	1.7821	3.23E-16
952.88	1.6406	8.99E-14	1.782	3.09E-16
954.44	1.6406	8.68E-14	1.7819	2.96E-16
956	1.6406	8.37E-14	1.7818	2.84E-16
957.56	1.6405	8.08E-14	1.7818	2.72E-16
959.12	1.6405	7.80E-14	1.7817	2.61E-16
960.68	1.6404	7.53E-14	1.7816	2.50E-16
962.24	1.6404	7.26E-14	1.7815	2.40E-16
963.8	1.6403	7.01E-14	1.7815	2.30E-16
965.36	1.6403	6.77E-14	1.7814	2.21E-16
966.92	1.6402	6.54E-14	1.7813	2.12E-16
968.48	1.6402	6.31E-14	1.7812	2.03E-16
970.03	1.6401	6.10E-14	1.7812	1.95E-16
971.59	1.6401	5.89E-14	1.7811	1.87E-16
973.15	1.64	5.69E-14	1.781	1.79E-16
974.71	1.64	5.49E-14	1.781	1.72E-16
976.27	1.64	5.31E-14	1.7809	1.65E-16
977.83	1.6399	5.13E-14	1.7808	1.59E-16
979.39	1.6399	4.96E-14	1.7808	1.52E-16
980.94	1.6398	4.79E-14	1.7807	1.46E-16
982.5	1.6398	4.63E-14	1.7806	1.40E-16
984.06	1.6397	4.47E-14	1.7806	1.35E-16
985.62	1.6397	4.32E-14	1.7805	1.29E-16
987.17	1.6396	4.18E-14	1.7804	1.24E-16
988.73	1.6396	4.04E-14	1.7804	1.19E-16
990.29	1.6396	3.91E-14	1.7803	1.15E-16
991.85	1.6395	3.78E-14	1.7802	1.10E-16
993.4	1.6395	3.65E-14	1.7802	1.06E-16
994.96	1.6394	3.53E-14	1.7801	1.02E-16
996.52	1.6394	3.42E-14	1.78	9.78E-17
998.07	1.6394	3.31E-14	1.78	9.40E-17
999.63	1.6393	3.20E-14	1.7799	9.04E-17
1010.5	1.639	2.54E-14	1.7795	6.88E-17
1013.9	1.6389	2.37E-14	1.7793	6.32E-17
1017.3	1.6389	2.21E-14	1.7792	5.82E-17
1020.7	1.6388	2.06E-14	1.7791	5.36E-17
1024	1.6387	1.92E-14	1.7789	4.93E-17
1027.4	1.6386	1.80E-14	1.7788	4.54E-17
1030.8	1.6385	1.68E-14	1.7787	4.19E-17
1034.2	1.6384	1.57E-14	1.7786	3.86E-17
1037.6	1.6384	1.46E-14	1.7784	3.56E-17
1040.9	1.6383	1.37E-14	1.7783	3.29E-17
1044.3	1.6382	1.28E-14	1.7782	3.04E-17
1047.7	1.6381	1.20E-14	1.7781	2.80E-17
1051.1	1.6381	1.12E-14	1.778	2.59E-17
1054.5	1.638	1.05E-14	1.7778	2.40E-17
1057.9	1.6379	9.83E-15	1.7777	2.22E-17
1061.3	1.6378	9.21E-15	1.7776	2.05E-17
1064.6	1.6378	8.63E-15	1.7775	1.90E-17
1068	1.6377	8.09E-15	1.7774	1.76E-17
1071.4	1.6376	7.58E-15	1.7773	1.63E-17
1074.8	1.6375	7.11E-15	1.7772	1.51E-17
1078.2	1.6375	6.67E-15	1.777	1.40E-17
1081.6	1.6374	6.27E-15	1.7769	1.30E-17
1085	1.6373	5.88E-15	1.7768	1.20E-17
1088.4	1.6373	5.53E-15	1.7767	1.12E-17
1091.8	1.6372	5.19E-15	1.7766	1.04E-17
1095.1	1.6371	4.88E-15	1.7765	9.63E-18
1098.5	1.6371	4.59E-15	1.7764	8.95E-18
1101.9	1.637	4.31E-15	1.7763	8.32E-18
1105.3	1.6369	4.06E-15	1.7762	7.73E-18
1108.7	1.6369	3.82E-15	1.7761	7.19E-18
1112.1	1.6368	3.60E-15	1.776	6.69E-18
1115.5	1.6367	3.39E-15	1.7759	6.23E-18
1118.9	1.6367	3.19E-15	1.7758	5.80E-18
1122.3	1.6366	3.00E-15	1.7757	5.41E-18
1125.7	1.6366	2.83E-15	1.7756	5.04E-18
1129.1	1.6365	2.67E-15	1.7755	4.70E-18
1132.5	1.6364	2.52E-15	1.7754	4.38E-18
1135.9	1.6364	2.37E-15	1.7753	4.09E-18
1139.3	1.6363	2.24E-15	1.7753	3.81E-18
1142.7	1.6363	2.11E-15	1.7752	3.56E-18
1146.1	1.6362	2.00E-15	1.7751	3.32E-18
1149.5	1.6361	1.89E-15	1.775	3.11E-18
1152.9	1.6361	1.78E-15	1.7749	2.90E-18
1156.3	1.636	1.68E-15	1.7748	2.71E-18
1159.7	1.636	1.59E-15	1.7747	2.54E-18
1163.1	1.6359	1.50E-15	1.7746	2.37E-18
1166.5	1.6359	1.42E-15	1.7745	2.22E-18
1169.9	1.6358	1.35E-15	1.7745	2.08E-18
1173.3	1.6357	1.27E-15	1.7744	1.95E-18
1176.7	1.6357	1.20E-15	1.7743	1.82E-18
1180.1	1.6356	1.14E-15	1.7742	1.71E-18
1183.5	1.6356	1.08E-15	1.7741	1.60E-18
1186.9	1.6355	1.02E-15	1.7741	1.50E-18
1190.3	1.6355	9.69E-16	1.774	1.41E-18
1193.7	1.6354	9.19E-16	1.7739	1.32E-18
1197.1	1.6354	8.71E-16	1.7738	1.24E-18
1200.5	1.6353	8.26E-16	1.7737	1.16E-18
1204	1.6353	7.83E-16	1.7737	1.09E-18
1207.4	1.6352	7.43E-16	1.7736	1.02E-18
1210.8	1.6352	7.05E-16	1.7735	9.63E-19
1214.2	1.6351	6.69E-16	1.7734	9.05E-19
1217.6	1.6351	6.35E-16	1.7734	8.50E-19
1221	1.635	6.03E-16	1.7733	8.00E-19
1224.4	1.635	5.73E-16	1.7732	7.52E-19
1227.8	1.6349	5.44E-16	1.7731	7.07E-19
1231.2	1.6349	5.17E-16	1.7731	6.66E-19
1234.7	1.6349	4.91E-16	1.773	6.27E-19
1238.1	1.6348	4.67E-16	1.7729	5.90E-19
1241.5	1.6348	4.44E-16	1.7729	5.56E-19
1244.9	1.6347	4.23E-16	1.7728	5.24E-19
1248.3	1.6347	4.02E-16	1.7727	4.94E-19
1251.7	1.6346	3.83E-16	1.7726	4.65E-19
1255.1	1.6346	3.64E-16	1.7726	4.39E-19
1258.6	1.6345	3.47E-16	1.7725	4.14E-19
1262	1.6345	3.30E-16	1.7724	3.90E-19
1265.4	1.6345	3.14E-16	1.7724	3.68E-19
1268.8	1.6344	3.00E-16	1.7723	3.48E-19
1272.2	1.6344	2.85E-16	1.7722	3.28E-19
1275.7	1.6343	2.72E-16	1.7722	3.10E-19
1279.1	1.6343	2.59E-16	1.7721	2.93E-19
1282.5	1.6342	2.47E-16	1.7721	2.77E-19
1285.9	1.6342	2.36E-16	1.772	2.62E-19
1289.3	1.6342	2.25E-16	1.7719	2.47E-19
1292.8	1.6341	2.15E-16	1.7719	2.34E-19
1296.2	1.6341	2.05E-16	1.7718	2.21E-19
1299.6	1.634	1.95E-16	1.7717	2.09E-19
1303	1.634	1.87E-16	1.7717	1.98E-19
1306.5	1.634	1.78E-16	1.7716	1.87E-19
1309.9	1.6339	1.70E-16	1.7716	1.78E-19
1313.3	1.6339	1.63E-16	1.7715	1.68E-19
1316.7	1.6339	1.55E-16	1.7714	1.59E-19
1320.2	1.6338	1.48E-16	1.7714	1.51E-19
1323.6	1.6338	1.42E-16	1.7713	1.43E-19
1327	1.6337	1.36E-16	1.7713	1.36E-19
1330.5	1.6337	1.30E-16	1.7712	1.29E-19
1333.9	1.6337	1.24E-16	1.7712	1.22E-19
1337.3	1.6336	1.19E-16	1.7711	1.16E-19
1340.7	1.6336	1.14E-16	1.7711	1.10E-19
1344.2	1.6336	1.09E-16	1.771	1.04E-19
1347.6	1.6335	1.04E-16	1.7709	9.88E-20
1351	1.6335	9.96E-17	1.7709	9.38E-20
1354.5	1.6335	9.54E-17	1.7708	8.91E-20
1357.9	1.6334	9.13E-17	1.7708	8.46E-20
1361.3	1.6334	8.75E-17	1.7707	8.04E-20
1364.8	1.6334	8.38E-17	1.7707	7.64E-20
1368.2	1.6333	8.03E-17	1.7706	7.26E-20
1371.6	1.6333	7.70E-17	1.7706	6.91E-20
1375.1	1.6333	7.38E-17	1.7705	6.57E-20
1378.5	1.6332	7.07E-17	1.7705	6.25E-20
1381.9	1.6332	6.78E-17	1.7704	5.94E-20
1385.4	1.6332	6.51E-17	1.7704	5.66E-20
1388.8	1.6331	6.24E-17	1.7703	5.38E-20
1392.3	1.6331	5.99E-17	1.7703	5.12E-20
1395.7	1.6331	5.75E-17	1.7702	4.88E-20
1399.1	1.633	5.52E-17	1.7702	4.65E-20
1402.6	1.633	5.29E-17	1.7701	4.43E-20
1406	1.633	5.08E-17	1.7701	4.22E-20
1409.5	1.6329	4.88E-17	1.77	4.02E-20
1412.9	1.6329	4.69E-17	1.77	3.83E-20
1416.3	1.6329	4.50E-17	1.7699	3.65E-20
1419.8	1.6328	4.33E-17	1.7699	3.48E-20
1423.2	1.6328	4.16E-17	1.7698	3.32E-20
1426.7	1.6328	4.00E-17	1.7698	3.17E-20
1430.1	1.6328	3.84E-17	1.7698	3.02E-20
1433.6	1.6327	3.69E-17	1.7697	2.88E-20
1437	1.6327	3.55E-17	1.7697	2.75E-20
1440.4	1.6327	3.41E-17	1.7696	2.63E-20
1443.9	1.6326	3.28E-17	1.7696	2.51E-20
1447.3	1.6326	3.16E-17	1.7695	2.39E-20
1450.8	1.6326	3.04E-17	1.7695	2.29E-20
1454.2	1.6326	2.93E-17	1.7694	2.19E-20
1457.7	1.6325	2.82E-17	1.7694	2.09E-20
1461.1	1.6325	2.71E-17	1.7694	2.00E-20
1464.6	1.6325	2.61E-17	1.7693	1.91E-20
1468	1.6325	2.51E-17	1.7693	1.82E-20
1471.5	1.6324	2.42E-17	1.7692	1.74E-20
1474.9	1.6324	2.33E-17	1.7692	1.67E-20
1478.4	1.6324	2.25E-17	1.7691	1.60E-20
1481.8	1.6323	2.16E-17	1.7691	1.53E-20
1485.3	1.6323	2.08E-17	1.7691	1.46E-20
1488.7	1.6323	2.01E-17	1.769	1.40E-20
1492.2	1.6323	1.94E-17	1.769	1.34E-20
1495.7	1.6322	1.87E-17	1.7689	1.28E-20
1499.1	1.6322	1.80E-17	1.7689	1.23E-20
1502.6	1.6322	1.74E-17	1.7689	1.17E-20
1506	1.6322	1.67E-17	1.7688	1.13E-20
1509.5	1.6321	1.62E-17	1.7688	1.08E-20
1512.9	1.6321	1.56E-17	1.7688	1.03E-20
1516.4	1.6321	1.50E-17	1.7687	9.90E-21
1519.8	1.6321	1.45E-17	1.7687	9.49E-21
1523.3	1.632	1.40E-17	1.7686	9.10E-21
1526.8	1.632	1.35E-17	1.7686	8.72E-21
1530.2	1.632	1.30E-17	1.7686	8.37E-21
1533.7	1.632	1.26E-17	1.7685	8.03E-21
1537.1	1.6319	1.22E-17	1.7685	7.70E-21
1540.6	1.6319	1.18E-17	1.7685	7.39E-21
1544.1	1.6319	1.14E-17	1.7684	7.09E-21
1547.5	1.6319	1.10E-17	1.7684	6.80E-21
1551	1.6319	1.06E-17	1.7684	6.53E-21
1554.5	1.6318	1.02E-17	1.7683	6.27E-21
1557.9	1.6318	9.90E-18	1.7683	6.02E-21
1561.4	1.6318	9.57E-18	1.7682	5.78E-21
1564.9	1.6318	9.25E-18	1.7682	5.56E-21
1568.3	1.6317	8.94E-18	1.7682	5.34E-21
1571.8	1.6317	8.65E-18	1.7681	5.13E-21
1575.2	1.6317	8.36E-18	1.7681	4.93E-21
1578.7	1.6317	8.09E-18	1.7681	4.74E-21
1582.2	1.6317	7.82E-18	1.768	4.55E-21
1585.7	1.6316	7.57E-18	1.768	4.38E-21
1589.1	1.6316	7.32E-18	1.768	4.21E-21
1592.6	1.6316	7.09E-18	1.7679	4.05E-21
1596.1	1.6316	6.86E-18	1.7679	3.89E-21
1599.5	1.6316	6.64E-18	1.7679	3.75E-21
1603	1.6315	6.43E-18	1.7678	3.60E-21
1606.5	1.6315	6.22E-18	1.7678	3.47E-21
1609.9	1.6315	6.02E-18	1.7678	3.34E-21
1613.4	1.6315	5.83E-18	1.7678	3.21E-21
1616.9	1.6315	5.65E-18	1.7677	3.09E-21
1620.4	1.6314	5.47E-18	1.7677	2.98E-21
1623.8	1.6314	5.30E-18	1.7677	2.87E-21
1627.3	1.6314	5.14E-18	1.7676	2.76E-21
1630.8	1.6314	4.98E-18	1.7676	2.66E-21
1634.3	1.6314	4.82E-18	1.7676	2.56E-21
1637.7	1.6313	4.68E-18	1.7675	2.47E-21
1641.2	1.6313	4.53E-18	1.7675	2.38E-21
1644.7	1.6313	4.39E-18	1.7675	2.29E-21
1648.2	1.6313	4.26E-18	1.7674	2.21E-21
1651.6	1.6313	4.13E-18	1.7674	2.13E-21
1655.1	1.6312	4.01E-18	1.7674	2.05E-21
1658.6	1.6312	3.89E-18	1.7674	1.98E-21
1662.1	1.6312	3.77E-18	1.7673	1.91E-21
1665.6	1.6312	3.66E-18	1.7673	1.84E-21
1669	1.6312	3.55E-18	1.7673	1.78E-21
1672.5	1.6311	3.44E-18	1.7672	1.72E-21
1676	1.6311	3.34E-18	1.7672	1.66E-21
1679.5	1.6311	3.24E-18	1.7672	1.60E-21
1683	1.6311	3.15E-18	1.7672	1.54E-21
1686.5	1.6311	3.05E-18	1.7671	1.49E-21
1689.9	1.6311	2.97E-18	1.7671	1.44E-21
